
Toit ouvrant de 206 CC

Vitesse  moteur

n°	(tr/min)3	(tr/min)3
 point	Temps(s)	Position angulaire du bras(°)
1	    0,020000	   -6,161800
2	    0,040000	   -6,140333
3	    0,060000	   -6,164429
4	    0,080000	   -6,194000
5	    0,100000	   -6,227222
6	    0,120000	   -6,253800
7	    0,140000	   -6,253800
8	    0,160000	   -6,226200
9	    0,180000	   -6,115800
10	    0,200000	   -5,885800
11	    0,220000	   -5,517800
12	    0,240000	   -5,113000
13	    0,260000	   -4,579400
14	    0,280000	   -3,935400
15	    0,300000	   -3,236200
16	    0,320000	   -2,500200
17	    0,340000	   -1,801000
18	    0,360000	   -1,101800
19	    0,380000	   -0,457800
20	    0,400000	    0,094200
21	    0,420000	    0,526600
22	    0,440000	    0,931400
23	    0,460000	    1,271800
24	    0,480000	    1,538600
25	    0,500000	    1,777800
26	    0,520000	    1,998600
27	    0,540000	    2,274600
28	    0,560000	    2,550600
29	    0,580000	    2,799000
30	    0,600000	    3,056600
31	    0,620000	    3,286600
32	    0,640000	    3,562600
33	    0,660000	    3,811000
34	    0,680000	    4,059400
35	    0,700000	    4,307800
36	    0,720000	    4,574600
37	    0,740000	    4,841400
38	    0,760000	    5,099000
39	    0,780000	    5,384200
40	    0,800000	    5,641800
41	    0,820000	    5,936200
42	    0,840000	    6,175400
43	    0,860000	    6,460600
44	    0,880000	    6,745800
45	    0,900000	    7,012600
46	    0,920000	    7,270200
47	    0,940000	    7,555400
48	    0,960000	    7,794600
49	    0,980000	    8,070600
50	    1,000000	    8,346600
51	    1,020000	    8,604200
52	    1,040000	    8,889400
53	    1,060000	    9,137800
54	    1,080000	    9,377000
55	    1,100000	    9,653000
56	    1,120000	    9,929000
57	    1,140000	   10,177400
58	    1,160000	   10,453400
59	    1,180000	   10,738600
60	    1,200000	   11,014600
61	    1,220000	   11,299800
62	    1,240000	   11,566600
63	    1,260000	   11,824200
64	    1,280000	   12,118600
65	    1,300000	   12,385400
66	    1,320000	   12,652200
67	    1,340000	   12,909800
68	    1,360000	   13,195000
69	    1,380000	   13,443400
70	    1,400000	   13,728600
71	    1,420000	   14,004600
72	    1,440000	   14,280600
73	    1,460000	   14,602600
74	    1,480000	   14,869400
75	    1,500000	   15,163800
76	    1,520000	   15,476600
77	    1,540000	   15,752600
78	    1,560000	   16,056200
79	    1,580000	   16,350600
80	    1,600000	   16,626600
81	    1,620000	   16,911800
82	    1,640000	   17,233800
83	    1,660000	   17,491400
84	    1,680000	   17,813400
85	    1,700000	   18,107800
86	    1,720000	   18,411400
87	    1,740000	   18,724200
88	    1,760000	   19,018600
89	    1,780000	   19,322200
90	    1,800000	   19,635000
91	    1,820000	   19,947800
92	    1,840000	   20,242200
93	    1,860000	   20,573400
94	    1,880000	   20,877000
95	    1,900000	   21,189800
96	    1,920000	   21,530200
97	    1,940000	   21,870600
98	    1,960000	   22,192600
99	    1,980000	   22,523800
100	    2,000000	   22,845800
101	    2,020000	   23,177000
102	    2,040000	   23,489800
103	    2,060000	   23,802600
104	    2,080000	   24,097000
105	    2,100000	   24,409800
106	    2,120000	   24,695000
107	    2,140000	   25,017000
108	    2,160000	   25,357400
109	    2,180000	   25,688600
110	    2,200000	   26,019800
111	    2,220000	   26,387800
112	    2,240000	   26,746600
113	    2,260000	   27,123800
114	    2,280000	   27,519400
115	    2,300000	   27,933400
116	    2,320000	   28,319800
117	    2,340000	   28,660200
118	    2,360000	   28,973000
119	    2,380000	   29,359400
120	    2,400000	   29,745800
121	    2,420000	   30,077000
122	    2,440000	   30,417400
123	    2,460000	   30,794600
124	    2,480000	   31,162600
125	    2,500000	   31,512200
126	    2,520000	   31,852600
127	    2,540000	   32,239000
128	    2,560000	   32,643800
129	    2,580000	   32,984200
130	    2,600000	   33,352200
131	    2,620000	   33,766200
132	    2,640000	   34,189400
133	    2,660000	   34,539000
134	    2,680000	   34,907000
135	    2,700000	   35,302600
136	    2,720000	   35,707400
137	    2,740000	   36,112200
138	    2,760000	   36,517000
139	    2,780000	   36,940200
140	    2,800000	   37,326600
141	    2,820000	   37,703800
142	    2,840000	   38,108600
143	    2,860000	   38,541000
144	    2,880000	   38,955000
145	    2,900000	   39,387400
146	    2,920000	   39,819800
147	    2,940000	   40,224600
148	    2,960000	   40,638600
149	    2,980000	   41,025000
150	    3,000000	   41,466600
151	    3,020000	   41,899000
152	    3,040000	   42,331400
153	    3,060000	   42,782200
154	    3,080000	   43,214600
155	    3,100000	   43,619400
156	    3,120000	   44,051800
157	    3,140000	   44,502600
158	    3,160000	   44,971800
159	    3,180000	   45,468600
160	    3,200000	   45,910200
161	    3,220000	   46,370200
162	    3,240000	   46,821000
163	    3,260000	   47,262600
164	    3,280000	   47,777800
165	    3,300000	   48,283800
166	    3,320000	   48,743800
167	    3,340000	   49,231400
168	    3,360000	   49,700600
169	    3,380000	   50,160600
170	    3,400000	   50,648200
171	    3,420000	   51,154200
172	    3,440000	   51,641800
173	    3,460000	   52,138600
174	    3,480000	   52,589400
175	    3,500000	   53,049400
176	    3,520000	   53,583000
177	    3,540000	   54,098200
178	    3,560000	   54,595000
179	    3,580000	   55,110200
180	    3,600000	   55,634600
181	    3,620000	   56,131400
182	    3,640000	   56,683400
183	    3,660000	   57,207800
184	    3,680000	   57,741400
185	    3,700000	   58,275000
186	    3,720000	   58,771800
187	    3,740000	   59,296200
188	    3,760000	   59,848200
189	    3,780000	   60,409400
190	    3,800000	   60,943000
191	    3,820000	   61,476600
192	    3,840000	   62,001000
193	    3,860000	   62,571400
194	    3,880000	   63,123400
195	    3,900000	   63,684600
196	    3,920000	   64,273400
197	    3,940000	   64,853000
198	    3,960000	   65,423400
199	    3,980000	   65,975400
200	    4,000000	   66,573400
201	    4,020000	   67,162200
202	    4,040000	   67,741800
203	    4,060000	   68,330600
204	    4,080000	   68,919400
205	    4,100000	   69,508200
206	    4,120000	   70,078600
207	    4,140000	   70,630600
208	    4,160000	   71,210200
209	    4,180000	   71,799000
210	    4,200000	   72,369400
211	    4,220000	   72,958200
212	    4,240000	   73,565400
213	    4,260000	   74,154200
214	    4,280000	   74,743000
215	    4,300000	   75,331800
216	    4,320000	   75,948200
217	    4,340000	   76,564600
218	    4,360000	   77,199400
219	    4,380000	   77,815800
220	    4,400000	   78,413800
221	    4,420000	   79,039400
222	    4,440000	   79,637400
223	    4,460000	   80,244600
224	    4,480000	   80,870200
225	    4,500000	   81,486600
226	    4,520000	   82,093800
227	    4,540000	   82,737800
228	    4,560000	   83,335800
229	    4,580000	   83,961400
230	    4,600000	   84,614600
231	    4,620000	   85,258600
232	    4,640000	   85,939400
233	    4,660000	   86,592600
234	    4,680000	   87,282600
235	    4,700000	   88,018600
236	    4,720000	   88,736200
237	    4,740000	   89,426200
238	    4,760000	   90,180600
239	    4,780000	   90,962600
240	    4,800000	   91,763000
241	    4,820000	   92,627800
242	    4,840000	   93,483400
243	    4,860000	   94,366600
244	    4,880000	   95,249800
245	    4,900000	   96,087000
246	    4,920000	   96,951800
247	    4,940000	   97,798200
248	    4,960000	   98,580200
249	    4,980000	   99,334600
250	    5,000000	  100,033800
251	    5,020000	  100,696200
252	    5,040000	  101,349400
253	    5,060000	  102,002600
254	    5,080000	  102,674200
255	    5,100000	  103,364200
256	    5,120000	  104,054200
257	    5,140000	  104,790200
258	    5,160000	  105,526200
259	    5,180000	  106,289800
260	    5,200000	  107,081000
261	    5,220000	  107,817000
262	    5,240000	  108,562200
263	    5,260000	  109,316600
264	    5,280000	  110,025000
265	    5,300000	  110,742600
266	    5,320000	  111,469400
267	    5,340000	  112,187000
268	    5,360000	  112,969000
269	    5,380000	  113,732600
270	    5,400000	  114,533000
271	    5,420000	  115,333400
272	    5,440000	  116,106200
273	    5,460000	  116,915800
274	    5,480000	  117,743800
275	    5,500000	  118,553400
276	    5,520000	  119,335400
277	    5,540000	  120,126600
278	    5,560000	  120,899400
279	    5,580000	  121,663000
280	    5,600000	  122,445000
281	    5,620000	  123,273000
282	    5,640000	  124,137800
283	    5,660000	  124,984200
284	    5,680000	  125,858200
285	    5,700000	  126,750600
286	    5,720000	  127,670600
287	    5,740000	  128,627400
288	    5,760000	  129,584200
289	    5,780000	  130,568600
290	    5,800000	  131,553000
291	    5,820000	  132,528200
292	    5,840000	  133,503400
293	    5,860000	  134,497000
294	    5,880000	  135,490600
295	    5,900000	  136,511800
296	    5,920000	  137,533000
297	    5,940000	  138,526600
298	    5,960000	  139,446600
299	    5,980000	  140,265400
300	    6,000000	  141,001400
301	    6,020000	  141,654600
302	    6,040000	  142,188200
303	    6,060000	  142,611400
304	    6,080000	  142,924200
305	    6,100000	  143,126600
306	    6,120000	  143,246200
307	    6,140000	  143,273800
308	    6,160000	  143,273800
309	    6,180000	  143,283000
310	    6,200000	  143,292200
311	    6,220000	  143,301400
312	    6,240000	  143,347400
313	    6,260000	  143,384200
314	    6,280000	  143,421000
315	    6,300000	  143,467000
316	    6,320000	  143,503800
317	    6,340000	  143,559000
318	    6,360000	  143,595800
319	    6,380000	  143,651000
320	    6,400000	  143,678600
321	    6,420000	  143,687800
322	    6,440000	  143,697000
323	    6,460000	  143,706200
324	    6,480000	  143,724600
325	    6,500000	  143,743000
326	    6,520000	  143,752200
327	    6,540000	  143,752200
328	    6,560000	  143,770600
329	    6,580000	  143,770600
330	    6,600000	  143,789000
331	    6,620000	  143,917800
332	    6,640000	  144,046600
333	    6,660000	  144,184600
334	    6,680000	  144,322600
335	    6,700000	  144,451400
336	    6,720000	  144,617000
337	    6,740000	  144,791800
338	    6,760000	  144,985000
339	    6,780000	  145,159800
340	    6,800000	  145,325400
341	    6,820000	  145,399000
342	    6,840000	  145,463400
343	    6,860000	  145,537000
344	    6,880000	  145,610600
345	    6,900000	  145,684200
346	    6,920000	  145,739400
347	    6,940000	  145,785400
348	    6,960000	  145,813000
349	    6,980000	  145,849800
350	    7,000000	  145,886600
351	    7,020000	  145,923400
352	    7,040000	  145,951000
353	    7,060000	  145,969400
354	    7,080000	  145,987800
355	    7,100000	  146,006200
356	    7,120000	  146,015400
357	    7,140000	  146,015400
358	    7,160000	  146,024600
359	    7,180000	  146,024600
360	    7,200000	  146,015400
361	    7,220000	  146,015400
362	    7,240000	  146,024600
363	    7,260000	  146,024600
364	    7,280000	  146,024600
365	    7,300000	  146,024600
366	    7,320000	  146,024600
367	    7,340000	  146,024600
368	    7,360000	  146,024600
369	    7,380000	  146,033800
370	    7,400000	  146,052200
371	    7,420000	  146,052200
372	    7,440000	  146,061400
373	    7,460000	  146,061400
374	    7,480000	  146,061400
375	    7,500000	  146,070600
376	    7,520000	  146,070600
377	    7,540000	  146,079800
378	    7,560000	  146,070600
379	    7,580000	  146,070600
380	    7,600000	  146,070600
381	    7,620000	  146,079800
382	    7,640000	  146,070600
383	    7,660000	  146,070600
384	    7,680000	  146,079800
385	    7,700000	  146,079800
386	    7,720000	  146,089000
387	    7,740000	  146,079800
388	    7,760000	  146,098200
389	    7,780000	  146,098200
390	    7,800000	  146,089000
391	    7,820000	  146,089000
392	    7,840000	  146,089000
393	    7,860000	  146,098200
394	    7,880000	  146,089000
395	    7,900000	  146,079800
396	    7,920000	  146,061400
397	    7,940000	  146,070600
398	    7,960000	  146,061400
399	    7,980000	  146,061400
400	    8,000000	  146,061400
401	    8,020000	  146,061400
402	    8,040000	  146,070600
403	    8,060000	  146,061400
404	    8,080000	  146,070600
405	    8,100000	  146,079800
406	    8,120000	  146,098200
407	    8,140000	  146,089000
408	    8,160000	  146,089000
409	    8,180000	  146,089000
410	    8,200000	  146,098200
411	    8,220000	  146,089000
412	    8,240000	  146,089000
413	    8,260000	  146,089000
414	    8,280000	  146,089000
415	    8,300000	  146,089000
416	    8,320000	  146,079800
417	    8,340000	  146,079800
418	    8,360000	  146,079800
419	    8,380000	  146,079800
420	    8,400000	  146,070600
421	    8,420000	  146,079800
422	    8,440000	  146,079800
423	    8,460000	  146,079800
424	    8,480000	  146,079800
425	    8,500000	  146,070600
426	    8,520000	  146,070600
427	    8,540000	  146,070600
428	    8,560000	  146,070600
429	    8,580000	  146,070600
430	    8,600000	  146,070600
431	    8,620000	  146,070600
432	    8,640000	  146,070600
433	    8,660000	  146,070600
434	    8,680000	  146,061400
435	    8,700000	  146,061400
436	    8,720000	  146,061400
437	    8,740000	  146,061400
438	    8,760000	  146,061400
439	    8,780000	  146,061400
440	    8,800000	  146,079800
441	    8,820000	  146,070600
442	    8,840000	  146,070600
443	    8,860000	  146,089000
444	    8,880000	  146,098200
445	    8,900000	  146,107400
446	    8,920000	  146,116600
447	    8,940000	  146,125800
448	    8,960000	  146,135000
449	    8,980000	  146,144200
450	    9,000000	  146,135000
451	    9,020000	  146,144200
452	    9,040000	  146,144200
453	    9,060000	  146,135000
454	    9,080000	  146,135000
455	    9,100000	  146,125800
456	    9,120000	  146,125800
457	    9,140000	  146,125800
458	    9,160000	  146,116600
459	    9,180000	  146,116600
460	    9,200000	  146,116600
461	    9,220000	  146,116600
462	    9,240000	  146,116600
463	    9,260000	  146,116600
464	    9,280000	  146,116600
465	    9,300000	  146,125800
466	    9,320000	  146,125800
467	    9,340000	  146,116600
468	    9,360000	  146,116600
469	    9,380000	  146,116600
470	    9,400000	  146,116600
471	    9,420000	  146,116600
472	    9,440000	  146,116600
473	    9,460000	  146,116600
474	    9,480000	  146,116600
475	    9,500000	  146,116600
476	    9,520000	  146,107400
477	    9,540000	  146,116600
478	    9,560000	  146,125800
479	    9,580000	  146,125800
480	    9,600000	  146,125800
481	    9,620000	  146,116600
482	    9,640000	  146,116600
483	    9,660000	  146,116600
484	    9,680000	  146,116600
485	    9,700000	  146,107400
486	    9,720000	  146,116600
487	    9,740000	  146,116600
488	    9,760000	  146,116600
489	    9,780000	  146,107400
490	    9,800000	  146,107400
491	    9,820000	  146,116600
492	    9,840000	  146,116600
493	    9,860000	  146,116600
494	    9,880000	  146,116600
495	    9,900000	  146,125800
496	    9,920000	  146,125800
497	    9,940000	  146,124778
498	    9,960000	  146,123500
499	    9,980000	  146,135000
500	   10,000000	  146,135000
